FileType=PCF										
NHL=14										
Date=03/19/19	14:25:07									
Facility=APL										
Serial=16071-7										
Customer=NASA										
NP=6										
Mach=0.150000										
Calibration=1:1										
CalPts=490										
TstPts=95										
PortNumbering=AP Standard										
Units=Torr C m/s kg/m^3 deg mm 										
Theta[deg]	Phi[deg]	P1[Torr]	P2[Torr]	P3[Torr]	P4[Torr]	P5[Torr]	P6[Torr]	Pt[Torr]	"Ps[Abs,Torr]"	Ts[C]
0	0	11.13867	4.53887	4.82566	4.71026	4.64626	0.21632	11.14948	713.44	26.6
1.691	128.401	11.13662	4.18249	5.15754	5.1786	4.16551	0.20395	11.15491	713.32001	26.6
1.692	77.194	11.14187	4.68213	4.66546	5.28654	4.07056	0.21974	11.15713	713.40002	26.5
1.699	26.182	11.13737	5.07821	4.29111	4.95972	4.38611	0.22463	11.15087	713.39001	26.5
1.699	-26.182	11.13907	5.06458	4.29944	4.44588	4.89889	0.21493	11.15669	713.40002	26.5
1.692	-77.194	11.1349	4.64196	4.69103	4.14288	5.19829	0.19824	11.15277	713.45001	26.5
1.691	-128.401	11.13454	4.15721	5.17157	4.2567	5.06867	0.18791	11.15079	713.47998	26.5
1.7	180	11.13764	3.94482	5.4017	4.71056	4.61023	0.18691	11.15409	713.40002	26.5
3.4	180	11.11082	3.33288	5.96367	4.6476	4.55301	0.13094	11.14901	713.42999	26.5
3.388	-152.325	11.10793	3.45769	5.81638	4.12956	5.08674	0.13136	11.1457	713.46002	26.5
3.397	-124.529	11.11554	3.80661	5.44971	3.73891	5.51761	0.1304	11.1547	713.5	26.5
3.399	-96.763	11.11467	4.31675	4.90598	3.53127	5.77131	0.14615	11.14993	713.40997	26.5
3.394	-69.283	11.12412	4.87466	4.39321	3.59302	5.72685	0.16613	11.15679	713.45001	26.5
3.4	-41.398	11.12437	5.36644	3.94304	3.90721	5.38853	0.18392	11.14992	713.44	26.4
3.401	-14.021	11.12986	5.67665	3.68842	4.37296	4.89968	0.20651	11.15776	713.44	26.4
3.401	14.021	11.12511	5.6888	3.67751	4.92638	4.33809	0.22057	11.15011	713.39001	26.4
3.4	41.398	11.12342	5.42451	3.90182	5.43953	3.86126	0.21842	11.15078	713.45001	26.4
3.394	69.283	11.11918	4.93434	4.34593	5.79339	3.54002	0.20818	11.14783	713.5	26.4
3.399	96.763	11.12152	4.38313	4.86682	5.88191	3.45484	0.19152	11.15222	713.40997	26.4
3.397	124.529	11.1177	3.86854	5.37726	5.68011	3.61494	0.16908	11.15285	713.35999	26.4
3.388	152.325	11.11892	3.48948	5.79738	5.21518	4.01885	0.14166	11.15688	713.47998	26.4
5.099	161.165	11.05416	2.81347	6.40086	5.17053	3.88694	0.08036	11.15642	713.31	26.4
5.109	142.013	11.05587	3.08412	6.08273	5.72916	3.39573	0.08436	11.15181	713.32001	26.4
5.095	123.033	11.056	3.51006	5.61174	6.15737	3.05045	0.10476	11.14791	713.39001	26.4
5.105	104.191	11.06494	4.03278	5.0702	6.38528	2.87191	0.12007	11.15025	713.35999	26.4
5.093	85.207	11.06911	4.61224	4.50635	6.42841	2.85735	0.14109	11.15282	713.40002	26.4
5.104	66.29	11.07691	5.18446	3.97585	6.27742	3.00796	0.16013	11.15836	713.25	26.3
5.094	47.331	11.07347	5.7073	3.51182	5.91309	3.30398	0.16522	11.15234	713.28998	26.4
5.089	28.397	11.0701	6.08552	3.19515	5.42772	3.74316	0.18913	11.14876	713.40997	26.3
5.096	9.576	11.07167	6.27779	3.04672	4.8617	4.27559	0.18462	11.14873	713.35999	26.3
5.096	-9.576	11.06901	6.25512	3.06069	4.28777	4.84702	0.17168	11.14618	713.33002	26.3
5.089	-28.397	11.06995	6.01861	3.24348	3.77416	5.38878	0.14227	11.14814	713.38	26.3
5.094	-47.331	11.07251	5.60981	3.57425	3.32636	5.89283	0.11028	11.15058	713.28003	26.3
5.104	-66.29	11.068	5.09595	4.02667	3.03889	6.20969	0.09358	11.15205	713.27002	26.3
5.093	-85.207	11.0621	4.51731	4.55568	2.91592	6.34852	0.08321	11.15068	713.27002	26.3
5.105	-104.191	11.04906	3.93183	5.13346	2.94348	6.27875	0.0622	11.14488	713.27002	26.3
5.095	-123.033	11.04747	3.40636	5.69177	3.15965	5.99762	0.05108	11.14502	713.27002	26.3
5.109	-142.013	11.05002	3.01076	6.15742	3.52866	5.56061	0.0685	11.14801	713.33002	26.3
5.099	-161.165	11.04936	2.78421	6.42804	4.01603	5.01727	0.05433	11.14986	713.35999	26.3
5.1	180	11.05246	2.71112	6.52364	4.57292	4.44881	0.06612	11.15275	713.25	26.3
6.8	180	10.95004	2.06226	7.06852	4.48827	4.32979	-0.01857	11.14946	713.28998	26.2
6.796	-166.229	10.94557	2.11283	6.99763	3.93281	4.8864	-0.03432	11.14874	713.34998	26.2
6.808	-152.311	10.94114	2.27218	6.7915	3.41113	5.45473	-0.02784	11.14251	713.22998	26.2
6.795	-138.383	10.94571	2.55698	6.44682	2.97235	5.97355	-0.02998	11.14644	713.21002	26.2
6.792	-124.591	10.94347	2.9314	6.00275	2.63367	6.39243	-0.03474	11.14393	713.29999	26.2
6.787	-110.754	10.95615	3.41199	5.47406	2.40928	6.69943	-0.03055	11.14993	713.26001	26.2
6.8	-96.985	10.96024	3.94729	4.91142	2.2886	6.8694	-0.02699	11.14901	713.40997	26.2
6.8	-83.015	10.95567	4.52018	4.34236	2.27737	6.88766	-0.01416	11.14211	713.31	26.2
6.787	-69.246	10.96867	5.09854	3.81568	2.40097	6.75074	-0.00322	11.1476	713.31	26.2
6.792	-55.409	10.9678	5.64285	3.33813	2.61631	6.48639	0.01931	11.14559	713.32001	26.2
6.795	-41.617	10.97315	6.11763	2.94452	2.94997	6.08681	0.04257	11.14622	713.25	26.2
6.808	-27.689	10.98116	6.49879	2.64798	3.39086	5.58951	0.06122	11.15475	713.22998	26.2
6.796	-13.771	10.97703	6.74454	2.45361	3.91107	5.02879	0.08918	11.15006	713.29999	26.2
6.8	0	10.98755	6.84551	2.38815	4.45074	4.47617	0.10303	11.15724	713.27002	26.2
6.796	13.771	10.97538	6.78398	2.42409	5.03036	3.90686	0.11044	11.14684	713.31	26.1
6.808	27.689	10.98123	6.57675	2.57884	5.59949	3.37806	0.11198	11.15395	713.35999	26.1
6.795	41.617	10.97389	6.22598	2.85226	6.0892	2.94585	0.10377	11.14607	713.21997	26.1
6.792	55.409	10.97035	5.75868	3.22726	6.50597	2.58031	0.08539	11.142	713.26001	26.1
6.787	69.246	10.97108	5.22028	3.7006	6.8146	2.32955	0.07997	11.146	713.28003	26.1
6.8	83.015	10.9655	4.64627	4.22098	6.98084	2.18713	0.06734	11.14239	713.28003	26.1
6.8	96.985	10.9635	4.0671	4.79183	6.99015	2.17384	0.04253	11.14923	713.28998	26.1
6.787	110.754	10.96019	3.51723	5.36762	6.83515	2.28705	0.03271	11.15077	713.29999	26.1
6.792	124.591	10.95781	3.02706	5.90496	6.55055	2.50776	0.02268	11.15136	713.26001	26.1
6.795	138.383	10.95208	2.63114	6.36461	6.13996	2.84093	0.00627	11.14876	713.22998	26.1
6.808	152.311	10.93887	2.31936	6.73176	5.63927	3.25493	-0.00955	11.14196	713.21997	26.1
6.796	166.229	10.94337	2.13616	6.96916	5.06834	3.77181	-0.01037	11.14749	713.15997	26.1
8.491	168.704	10.79576	1.44084	7.51254	4.95279	3.5967	-0.10655	11.14685	713.03003	26.1
8.502	157.493	10.79254	1.58736	7.31058	5.53935	3.06297	-0.10819	11.14512	713.21002	26.1
8.494	146.194	10.79509	1.84378	6.98144	6.08746	2.59723	-0.10155	11.14078	713.13	26.1
8.495	135.039	10.80347	2.17869	6.57075	6.58427	2.19925	-0.08891	11.14626	713.19	26
8.487	123.723	10.80387	2.59525	6.07141	6.99095	1.87807	-0.0776	11.14354	713.16998	26
8.492	112.575	10.81442	3.07882	5.52386	7.30085	1.64778	-0.07357	11.15053	713.28003	26
8.51	101.22	10.81423	3.63305	4.93131	7.48606	1.5062	-0.06214	11.14431	713.16998	26
8.5	90	10.82322	4.21868	4.34529	7.54385	1.47379	-0.03936	11.14692	713.22998	26
8.51	78.78	10.82906	4.81758	3.78115	7.47481	1.52865	-0.01855	11.15228	713.15002	26
8.492	67.425	10.82455	5.41512	3.24068	7.26116	1.69561	-0.01657	11.14349	713.15997	26
8.487	56.277	10.83412	5.96442	2.77683	6.94878	1.9485	-0.00983	11.14633	713.15002	26
8.495	44.961	10.84113	6.46241	2.37459	6.53003	2.29558	0.01357	11.15204	713.15997	26
8.494	33.806	10.8386	6.85975	2.06633	6.03112	2.71907	0.03303	11.14944	713.21997	26
8.502	22.507	10.84051	7.16374	1.83378	5.48486	3.20221	0.03077	11.14943	713.08002	26
8.491	11.296	10.83976	7.34229	1.71102	4.89396	3.75084	0.02144	11.1474	713.15997	26
8.5	0	10.84256	7.39254	1.6864	4.29571	4.342	0.01365	11.15148	713.15997	26
8.491	-11.296	10.83737	7.30217	1.74871	3.72848	4.92282	0.00373	11.14788	713.08002	26
8.502	-22.507	10.83313	7.09566	1.90261	3.19069	5.50683	-0.02113	11.14594	713.15002	26
8.494	-33.806	10.83544	6.76061	2.16304	2.71019	6.06046	-0.05172	11.14708	713.21997	26
8.495	-44.961	10.83116	6.33718	2.50094	2.31597	6.53246	-0.06615	11.14785	713.09003	26
8.487	-56.277	10.83284	5.8319	2.91124	2.00709	6.92886	-0.08345	11.15088	713.12	25.9
8.492	-67.425	10.82328	5.27181	3.38575	1.77365	7.21598	-0.10699	11.14582	713.07001	26
8.51	-78.78	10.82021	4.67004	3.93058	1.62757	7.40216	-0.12331	11.14806	713.02002	25.9
8.5	-90	10.81216	4.07937	4.49696	1.59163	7.44087	-0.12819	11.14586	713.15002	25.9
8.51	-101.22	10.81504	3.50821	5.0889	1.64098	7.36354	-0.13024	11.14887	713.15002	25.9
8.492	-112.575	10.81066	2.96909	5.67524	1.79895	7.14813	-0.13904	11.15046	713.06	25.9
8.487	-123.723	10.80491	2.50297	6.2043	2.03874	6.82005	-0.13929	11.1454	713.06	25.9
8.495	-135.039	10.8042	2.10081	6.68715	2.36384	6.39744	-0.12873	11.14705	713.09998	25.9
8.494	-146.194	10.79644	1.78851	7.0705	2.75927	5.90374	-0.12496	11.14352	713.10999	25.9
8.502	-157.493	10.79998	1.55868	7.36747	3.24464	5.34253	-0.13047	11.1471	713.21002	25.9
8.491	-168.704	10.79904	1.4299	7.54192	3.78577	4.75844	-0.12661	11.14756	713.09003	25.9
8.5	180	10.79844	1.38696	7.5989	4.34925	4.17792	-0.11633	11.1483	713.07001	25.9
10.2	180	10.60607	0.71299	8.08373	4.192	3.99318	-0.21871	11.14147	713.10999	25.9
10.191	-170.497	10.61326	0.74904	8.04807	3.62118	4.58038	-0.22984	11.145	713.14001	25.9
10.21	-161.034	10.61064	0.84456	7.90159	3.06062	5.18161	-0.23199	11.14577	713.08002	25.9
10.194	-151.526	10.60961	1.03064	7.64693	2.54883	5.77016	-0.2236	11.13984	713.02002	25.9
10.19	-142.105	10.61516	1.29353	7.31377	2.11456	6.30873	-0.22631	11.14706	713.12	25.9
10.215	-132.646	10.61044	1.62903	6.8866	1.72312	6.8002	-0.23646	11.13852	713.09003	25.9
10.203	-123.092	10.61426	2.04068	6.38283	1.40445	7.22923	-0.24767	11.14324	713.09003	25.8
10.192	-113.678	10.61685	2.50865	5.83949	1.17184	7.55997	-0.24314	11.14366	713.03003	25.9
10.208	-104.249	10.62363	3.02994	5.26569	1.00478	7.80378	-0.23579	11.14896	712.98999	25.8
10.21	-94.801	10.6295	3.60464	4.66414	0.92313	7.93472	-0.23303	11.15122	713.12	25.8
10.21	-85.199	10.63022	4.20292	4.06371	0.91293	7.95422	-0.23604	11.14786	713.08002	25.8
10.208	-75.751	10.62987	4.80781	3.48932	0.98626	7.85988	-0.23057	11.14069	713.09998	25.8
10.192	-66.322	10.63757	5.40592	2.95321	1.14461	7.65735	-0.21575	11.14664	713.13	25.8
10.203	-56.908	10.6401	5.98037	2.47884	1.36902	7.35802	-0.19649	11.1439	713.13	25.8
10.215	-47.354	10.64663	6.51052	2.04751	1.6741	6.96109	-0.18445	11.14544	713.14001	25.8
10.19	-37.895	10.64857	6.96628	1.70503	2.05486	6.48798	-0.16787	11.14529	713.07001	25.8
10.194	-28.474	10.6536	7.34516	1.41831	2.48985	5.96657	-0.14941	11.14606	712.94	25.8
10.21	-18.966	10.65028	7.63848	1.20124	2.9935	5.38709	-0.11795	11.14588	713.10999	25.8
10.191	-9.503	10.65884	7.81836	1.0764	3.5529	4.78139	-0.09036	11.14598	713.15997	25.8
10.2	0	10.65713	7.89563	1.02105	4.12192	4.19183	-0.08504	11.14509	713.14001	25.8
10.191	9.503	10.66213	7.85801	1.04143	4.73224	3.60114	-0.0803	11.14519	713.07001	25.8
10.21	18.966	10.65087	7.71075	1.12675	5.33312	3.02518	-0.06697	11.14108	713.09003	25.8
10.194	28.474	10.66123	7.45583	1.31448	5.91135	2.52218	-0.05613	11.15058	713.15002	25.8
10.19	37.895	10.65725	7.09669	1.57253	6.45673	2.05837	-0.06528	11.14687	713.08002	25.8
10.215	47.354	10.65148	6.65067	1.90864	6.94575	1.65398	-0.09373	11.14109	713.03998	25.8
10.203	56.908	10.6524	6.1399	2.31909	7.36106	1.3284	-0.11594	11.14639	713.07001	25.8
10.192	66.322	10.64687	5.57798	2.78829	7.6758	1.08855	-0.1226	11.1437	713.21997	25.7
10.208	75.751	10.65198	4.98334	3.31324	7.90169	0.92022	-0.12575	11.14828	713.12	25.7
10.21	85.199	10.64395	4.37425	3.87625	8.02289	0.82825	-0.13513	11.1468	713.12	25.7
10.21	94.801	10.63397	3.76299	4.4679	8.02981	0.80943	-0.15929	11.14232	713.02002	25.7
10.208	104.249	10.62821	3.18003	5.06234	7.92282	0.88086	-0.17933	11.14031	713.06	25.7
10.192	113.678	10.62666	2.64517	5.65354	7.71573	1.03348	-0.18393	11.14497	713.02002	25.7
10.203	123.092	10.61868	2.15697	6.20891	7.4184	1.24423	-0.18265	11.14935	713.06	25.7
10.215	132.646	10.61556	1.72932	6.7286	7.01474	1.54836	-0.18995	11.15155	713.07001	25.7
10.19	142.105	10.60188	1.37377	7.17695	6.51785	1.93337	-0.1999	11.13867	713.08002	25.7
10.194	151.526	10.60059	1.09331	7.54596	5.97925	2.37047	-0.2076	11.13589	713.04999	25.7
10.21	161.034	10.60027	0.88334	7.83055	5.40905	2.8565	-0.20995	11.14273	712.98999	25.7
10.191	170.497	10.60443	0.76234	8.00566	4.8087	3.40087	-0.20971	11.14044	713.04999	25.7
11.899	171.783	10.37181	0.09587	8.47952	4.62261	3.19717	-0.30787	11.14095	713.03998	25.7
11.89	163.61	10.37046	0.20532	8.31362	5.23736	2.64635	-0.30949	11.13939	713.01001	25.7
11.889	155.445	10.37215	0.38134	8.06461	5.82424	2.14598	-0.31612	11.13735	713.09998	25.7
11.909	147.299	10.37131	0.60832	7.73668	6.39057	1.67614	-0.31492	11.14227	713.08002	25.7
11.902	139.148	10.37852	0.91301	7.32421	6.91882	1.27141	-0.31219	11.14246	713.09003	25.7
11.894	130.867	10.38546	1.28694	6.84727	7.38814	0.9267	-0.298	11.1452	712.96002	25.7
11.897	122.732	10.39583	1.71536	6.3197	7.78468	0.64884	-0.29345	11.14598	713.06	25.7
11.903	114.597	10.40098	2.19471	5.7594	8.10235	0.42618	-0.29443	11.14519	712.96997	25.7
11.893	106.346	10.41042	2.72605	5.162	8.33596	0.26742	-0.2938	11.1491	713.10999	25.7
11.892	98.155	10.41579	3.30101	4.55435	8.47321	0.18288	-0.28194	11.14715	713.09998	25.7
11.9	90	10.41931	3.89271	3.96151	8.51246	0.15936	-0.26481	11.14744	713.07001	25.7
11.892	81.845	10.42659	4.49533	3.38765	8.45416	0.20403	-0.24966	11.14712	713.13	25.7
11.893	73.654	10.42446	5.11029	2.83188	8.29391	0.31713	-0.24587	11.14018	713.12	25.6
11.903	65.403	10.42873	5.71452	2.3197	8.0509	0.49712	-0.24104	11.13779	713.02002	25.6
11.897	57.268	10.43224	6.28006	1.85975	7.72481	0.73981	-0.22706	11.14618	713.02002	25.6
11.894	49.133	10.4287	6.80068	1.44689	7.31576	1.03551	-0.20628	11.14112	713.01001	25.6
11.902	40.852	10.42885	7.27856	1.09181	6.84259	1.40619	-0.17807	11.14264	713.09998	25.6
11.909	32.701	10.43082	7.67382	0.81585	6.3114	1.83501	-0.159	11.14095	713.12	25.6
11.889	24.555	10.43951	7.98734	0.61025	5.73822	2.33114	-0.15999	11.14603	713.09998	25.6
11.89	16.39	10.43528	8.20814	0.4619	5.15073	2.84507	-0.17387	11.14142	713.01001	25.6
11.899	8.217	10.44242	8.34641	0.38612	4.54453	3.41657	-0.18682	11.14705	713.07001	25.6
11.9	0	10.44145	8.37862	0.37149	3.93621	4.01519	-0.18334	11.1503	713.12	25.6
11.899	-8.217	10.43479	8.30695	0.41531	3.35853	4.6126	-0.1922	11.14363	713.01001	25.6
11.89	-16.39	10.43372	8.13937	0.53515	2.80029	5.22254	-0.21824	11.14258	712.97998	25.6
11.889	-24.555	10.42929	7.88391	0.70935	2.28068	5.81335	-0.24773	11.14469	713.01001	25.6
11.909	-32.701	10.42972	7.55322	0.9406	1.81417	6.37187	-0.27413	11.14819	713.01001	25.6
11.902	-40.852	10.4238	7.13607	1.22889	1.40539	6.88951	-0.28895	11.14759	713.03998	25.6
11.894	-49.133	10.42029	6.637	1.60854	1.04737	7.35689	-0.28959	11.14496	713	25.6
11.897	-57.268	10.4204	6.10013	2.03058	0.75552	7.75271	-0.29699	11.15056	713.03998	25.6
11.903	-65.403	10.41484	5.52612	2.49439	0.54043	8.0539	-0.30542	11.14517	713.07001	25.6
11.893	-73.654	10.41914	4.92603	3.05111	0.39008	8.26867	-0.31815	11.15102	713.04999	25.6
11.892	-81.845	10.4066	4.30499	3.6184	0.29976	8.38574	-0.31945	11.13824	713.01001	25.6
11.9	-90	10.39767	3.70204	4.1955	0.27165	8.41226	-0.31043	11.13775	713.04999	25.6
11.892	-98.155	10.39749	3.12062	4.79085	0.31168	8.34788	-0.30628	11.14298	712.97998	25.6
11.893	-106.346	10.3986	2.561	5.39307	0.41242	8.18754	-0.31048	11.14739	713.03998	25.6
11.903	-114.597	10.38618	2.03711	5.97332	0.57049	7.93357	-0.32477	11.14161	712.96997	25.6
11.897	-122.732	10.39027	1.57893	6.52775	0.79288	7.60455	-0.32775	11.14949	713.03003	25.6
11.894	-130.867	10.38576	1.17144	7.03906	1.09274	7.18432	-0.32094	11.1464	713.03003	25.6
11.902	-139.148	10.37644	0.81686	7.49642	1.45977	6.68736	-0.31607	11.13543	713.02002	25.6
11.909	-147.299	10.38095	0.5383	7.8757	1.87889	6.1515	-0.31224	11.13961	713.09998	25.5
11.889	-155.445	10.39114	0.3261	8.17173	2.34702	5.59246	-0.32028	11.14638	713.06	25.5
11.89	-163.61	10.38536	0.1725	8.38533	2.87209	4.98783	-0.32662	11.14477	712.95001	25.5
11.899	-171.783	10.38364	0.08138	8.51643	3.43092	4.37897	-0.32687	11.1413	712.98999	25.5
11.9	180	10.37781	0.05189	8.55003	4.0131	3.78646	-0.31869	11.14584	712.98999	25.5
13.6	180	10.10606	-0.59509	8.9781	3.80582	3.55182	-0.40438	11.1426	713.03998	25.5
13.608	-172.853	10.10979	-0.57793	8.9604	3.22974	4.13453	-0.40943	11.14795	712.97998	25.5
13.611	-165.583	10.11334	-0.5051	8.85227	2.6513	4.75161	-0.40965	11.15091	712.96997	25.5
13.601	-158.353	10.11269	-0.37741	8.65372	2.11294	5.36252	-0.39886	11.14247	712.95001	25.5
13.609	-151.21	10.1122	-0.18902	8.38526	1.64092	5.93993	-0.38097	11.1359	713.04999	25.5
13.611	-143.999	10.11706	0.04912	8.04682	1.19939	6.51472	-0.37288	11.14241	712.97998	25.5
13.601	-136.825	10.11403	0.33741	7.62988	0.80567	7.0358	-0.37138	11.14013	712.94	25.5
13.596	-129.64	10.117	0.69042	7.15708	0.47323	7.51351	-0.36933	11.14415	712.95001	25.5
13.611	-122.431	10.11907	1.09709	6.63033	0.19524	7.92816	-0.37043	11.14279	712.98999	25.5
13.604	-115.211	10.12621	1.5585	6.07021	-0.02621	8.28067	-0.36333	11.14666	712.98999	25.5
13.595	-108.042	10.1231	2.05594	5.48941	-0.19247	8.54385	-0.35681	11.14211	713.13	25.5
13.607	-100.793	10.12722	2.59757	4.89033	-0.31446	8.74061	-0.35254	11.14022	712.98999	25.5
13.601	-93.617	10.13082	3.17558	4.28604	-0.37138	8.84301	-0.3545	11.1413	713.15002	25.5
13.601	-86.383	10.13816	3.77685	3.6964	-0.3792	8.86707	-0.36235	11.14618	713.08002	25.5
13.607	-79.207	10.13598	4.38489	3.11772	-0.33681	8.80056	-0.36855	11.14384	713.01001	25.5
13.595	-71.958	10.14219	5.00507	2.5676	-0.22131	8.6458	-0.3761	11.14095	713	25.5
13.604	-64.789	10.14823	5.60779	2.05966	-0.06715	8.41551	-0.37316	11.14814	713.01001	25.5
13.611	-57.569	10.14741	6.19211	1.5796	0.14517	8.09922	-0.37073	11.14121	713.01001	25.5
13.596	-50.36	10.15206	6.74177	1.15457	0.41622	7.71392	-0.37118	11.14714	712.97998	25.5
13.601	-43.175	10.15877	7.24845	0.7703	0.74875	7.26528	-0.37385	11.14954	713.01001	25.5
13.611	-36.001	10.158	7.69264	0.4628	1.12945	6.75608	-0.37405	11.14375	713.02002	25.4
13.609	-28.79	10.16036	8.07263	0.21529	1.57038	6.20107	-0.36424	11.1403	713.01001	25.5
13.601	-21.647	10.16434	8.38307	0.00966	2.04046	5.63146	-0.34833	11.14494	713.01001	25.5
13.611	-14.417	10.16643	8.61502	-0.14118	2.56991	5.01861	-0.32114	11.14277	713.01001	25.4
13.608	-7.147	10.17029	8.76708	-0.24251	3.13921	4.40391	-0.30003	11.14656	713.09003	25.4
13.6	0	10.17358	8.82458	-0.27533	3.70938	3.81248	-0.29527	11.14157	713.02002	25.4
13.608	7.147	10.17604	8.80499	-0.27427	4.31085	3.2188	-0.2966	11.14899	712.96997	25.4
13.611	14.417	10.17691	8.69072	-0.21191	4.93129	2.6387	-0.29031	11.14736	712.97998	25.4
13.601	21.647	10.17297	8.48015	-0.08273	5.52742	2.11318	-0.27682	11.14071	713.14001	25.4
13.609	28.79	10.17253	8.19865	0.0933	6.11765	1.61476	-0.27076	11.1434	713.09998	25.4
13.611	36.001	10.16624	7.83295	0.33092	6.67755	1.16055	-0.27861	11.13842	713.09998	25.4
13.601	43.175	10.16868	7.40786	0.62141	7.1884	0.76794	-0.3015	11.13701	713.07001	25.4
13.596	50.36	10.16632	6.92237	0.97294	7.64829	0.42895	-0.33074	11.13263	713.04999	25.4
13.611	57.569	10.16463	6.3853	1.37826	8.06088	0.13212	-0.35272	11.13475	712.98999	25.4
13.604	64.789	10.16662	5.80836	1.83707	8.40176	-0.10572	-0.36695	11.14271	712.90002	25.4
13.595	71.958	10.16438	5.21365	2.32704	8.65875	-0.28281	-0.37339	11.14058	713.07001	25.4
13.607	79.207	10.15403	4.59017	2.86938	8.83795	-0.41416	-0.37452	11.1377	713.03003	25.4
13.601	86.383	10.14667	3.97818	3.43395	8.93054	-0.47881	-0.38204	11.13368	712.98999	25.4
13.601	93.617	10.1425	3.37189	4.02169	8.93958	-0.48959	-0.3953	11.13459	713.01001	25.4
13.607	100.793	10.137	2.78924	4.6275	8.86564	-0.44822	-0.41027	11.13866	712.97998	25.4
13.595	108.042	10.12771	2.23617	5.23227	8.69638	-0.33958	-0.41619	11.13411	713.04999	25.4
13.604	115.211	10.12309	1.72226	5.82158	8.45491	-0.18521	-0.4076	11.13767	712.95001	25.4
13.611	122.431	10.10718	1.24732	6.39186	8.12455	0.02597	-0.40256	11.12825	713.08002	25.4
13.596	129.64	10.11702	0.82657	6.9344	7.73569	0.30444	-0.40622	11.14328	713.03003	25.4
13.601	136.825	10.10932	0.45569	7.42744	7.27999	0.62442	-0.41498	11.14194	712.90997	25.4
13.611	143.999	10.09641	0.13905	7.85861	6.77987	0.9844	-0.42116	11.13677	713.03003	25.4
13.609	151.21	10.09136	-0.11676	8.2351	6.21935	1.41892	-0.42129	11.13368	712.91998	25.4
13.601	158.353	10.09251	-0.32309	8.54011	5.63061	1.89702	-0.41058	11.1368	713.04999	25.4
13.611	165.583	10.09352	-0.47839	8.77386	5.034	2.40233	-0.40243	11.14086	712.97998	25.4
13.608	172.853	10.09206	-0.56873	8.91777	4.41305	2.96023	-0.39869	11.13694	713.01001	25.4
15.298	173.587	9.78211	-1.19704	9.30447	4.18026	2.7082	-0.47104	11.12677	713.03003	25.4
15.291	167.167	9.7854	-1.12402	9.18038	4.79552	2.15531	-0.48242	11.13668	713.01001	25.4
15.307	160.676	9.78165	-0.99805	8.97526	5.3997	1.63532	-0.4987	11.14094	712.97998	25.4
15.3	154.261	9.78124	-0.81942	8.69435	5.99846	1.15498	-0.51529	11.1368	713.01001	25.4
15.288	147.854	9.78774	-0.59535	8.35082	6.57303	0.71862	-0.52235	11.1375	712.90002	25.3
15.293	141.428	9.8005	-0.31703	7.94704	7.10764	0.33954	-0.5253	11.14318	712.89001	25.3
15.299	134.985	9.8042	0.00971	7.48458	7.60803	-0.01341	-0.52052	11.14087	713	25.3
15.305	128.583	9.80515	0.36908	6.98215	8.05345	-0.31911	-0.5192	11.1383	712.90997	25.3
15.309	122.142	9.8104	0.78274	6.44348	8.44754	-0.57825	-0.51758	11.13847	712.92999	25.3
15.304	115.711	9.81839	1.2495	5.86487	8.7704	-0.77745	-0.52541	11.1351	712.88	25.3
15.297	109.291	9.83128	1.75294	5.27727	9.02159	-0.92717	-0.53682	11.13571	712.90997	25.3
15.293	102.897	9.8408	2.28902	4.68249	9.2039	-1.0284	-0.53622	11.13902	712.92999	25.3
15.293	96.458	9.84797	2.85932	4.07524	9.30937	-1.08979	-0.52665	11.13539	712.96997	25.3
15.3	90	9.85095	3.44883	3.47947	9.33637	-1.10131	-0.51881	11.13423	712.89001	25.3
15.293	83.542	9.86139	4.05846	2.9011	9.29263	-1.0713	-0.51139	11.138	712.89001	25.3
15.293	77.103	9.86527	4.67902	2.34402	9.16727	-0.9912	-0.50979	11.13645	712.83002	25.3
15.297	70.709	9.86734	5.28509	1.82938	8.97153	-0.85991	-0.50641	11.13517	712.94	25.3
15.304	64.289	9.86893	5.88164	1.34553	8.70986	-0.69024	-0.4993	11.14192	712.90002	25.3
15.309	57.858	9.86362	6.46007	0.89782	8.36894	-0.46778	-0.48477	11.13822	712.90997	25.3
15.305	51.417	9.86245	7.00146	0.50228	7.96552	-0.19393	-0.46378	11.1353	712.88	25.3
15.299	45.015	9.86774	7.50359	0.15283	7.50889	0.13245	-0.4345	11.13831	712.84003	25.3
15.293	38.572	9.87209	7.94952	-0.13688	6.99675	0.51362	-0.40105	11.13621	712.82001	25.3
15.288	32.146	9.86916	8.33931	-0.39366	6.46007	0.91618	-0.39168	11.13618	712.89001	25.3
15.3	25.739	9.86477	8.66507	-0.59753	5.88265	1.37349	-0.39146	11.13494	712.87	25.3
15.307	19.324	9.8731	8.93058	-0.7503	5.28367	1.87799	-0.39883	11.14225	713.02002	25.3
15.291	12.833	9.87203	9.10409	-0.84493	4.68213	2.41608	-0.40817	11.13777	712.90002	25.3
15.298	6.413	9.87422	9.20952	-0.89816	4.07384	2.98793	-0.40719	11.14116	712.87	25.3
15.3	0	9.86999	9.22917	-0.89793	3.47085	3.58219	-0.39979	11.13537	712.90997	25.3
15.298	-6.413	9.86874	9.17308	-0.86639	2.90171	4.1737	-0.39864	11.14128	712.95001	25.3
15.291	-12.833	9.86902	9.03836	-0.78327	2.34335	4.7864	-0.40852	11.14085	713	25.3
15.307	-19.324	9.86288	8.83482	-0.6538	1.80571	5.4064	-0.42795	11.14015	712.98999	25.3
15.3	-25.739	9.85867	8.55418	-0.48022	1.32835	5.98118	-0.43533	11.1412	713.01001	25.3
15.288	-32.146	9.85441	8.20018	-0.26178	0.88018	6.55554	-0.43492	11.13567	712.94	25.3
15.293	-38.572	9.85571	7.78906	-0.00555	0.47339	7.10077	-0.43563	11.14232	713.09003	25.3
15.299	-45.015	9.84641	7.31627	0.31479	0.11773	7.58761	-0.42239	11.13724	712.96997	25.3
15.305	-51.417	9.84919	6.81027	0.67503	-0.18754	8.03064	-0.41367	11.14072	713.04999	25.3
15.309	-57.858	9.84025	6.25077	1.1206	-0.45405	8.41702	-0.40168	11.14006	713.01001	25.3
15.304	-64.289	9.84234	5.66543	1.58219	-0.6669	8.74207	-0.38933	11.14381	712.97998	25.3
15.297	-70.709	9.83397	5.0591	2.08386	-0.82725	8.98738	-0.3855	11.14279	712.96997	25.3
15.293	-77.103	9.83217	4.45406	2.61893	-0.93467	9.15507	-0.38015	11.14048	712.92999	25.3
15.293	-83.542	9.83234	3.82809	3.18787	-0.996	9.25037	-0.373	11.14172	712.90002	25.3
15.3	-90	9.81818	3.22082	3.74499	-1.01406	9.26397	-0.35916	11.13525	712.96997	25.3
15.293	-96.458	9.8189	2.63258	4.35026	-0.98233	9.20749	-0.35522	11.13972	713.06	25.3
15.293	-102.897	9.81677	2.07204	4.95542	-0.90997	9.07396	-0.35592	11.14178	712.96997	25.3
15.297	-109.291	9.81271	1.55092	5.54805	-0.79019	8.86753	-0.35601	11.1389	712.96002	25.3
15.304	-115.711	9.81097	1.06176	6.1287	-0.62478	8.58534	-0.36573	11.13736	713.01001	25.2
15.309	-122.142	9.81658	0.61364	6.70083	-0.40818	8.23988	-0.37239	11.14929	713.02002	25.3
15.305	-128.583	9.81025	0.21513	7.23022	-0.1391	7.81212	-0.38204	11.1403	713.03998	25.2
15.299	-134.985	9.81323	-0.12563	7.70893	0.17453	7.3497	-0.3853	11.14147	712.94	25.2
15.293	-141.428	9.81164	-0.42692	8.14051	0.52901	6.83621	-0.39542	11.14047	712.98999	25.2
15.288	-147.854	9.81305	-0.68165	8.53093	0.94341	6.27918	-0.40769	11.14476	712.90002	25.2
15.3	-154.261	9.80947	-0.88835	8.8485	1.39532	5.69482	-0.42372	11.14097	713.02002	25.2
15.307	-160.676	9.80803	-1.04185	9.08619	1.8801	5.10443	-0.44209	11.14353	712.96002	25.2
15.291	-167.167	9.80471	-1.14642	9.24639	2.4363	4.4852	-0.45679	11.13904	712.96997	25.2
15.298	-173.587	9.79616	-1.2115	9.34256	3.00052	3.87278	-0.46876	11.13485	712.92999	25.2
15.3	180	9.79401	-1.22425	9.36251	3.57794	3.28467	-0.46755	11.1383	713	25.2
17	180	9.45864	-1.83948	9.72314	3.32827	3.01622	-0.51654	11.14756	712.96997	25.2
16.99	-174.179	9.45271	-1.82496	9.69886	2.75054	3.59353	-0.50367	11.13638	712.96002	25.2
17.009	-168.383	9.45543	-1.77608	9.61852	2.18222	4.19903	-0.49047	11.13504	712.91998	25.2
17	-162.596	9.45872	-1.67978	9.4699	1.64533	4.81294	-0.46593	11.13361	713.01001	25.2
16.99	-156.759	9.47342	-1.54426	9.25156	1.15344	5.41623	-0.43834	11.14405	712.92999	25.2
16.995	-150.919	9.47439	-1.37821	8.96815	0.6773	6.01321	-0.42036	11.14289	712.92999	25.2
16.988	-145.161	9.46979	-1.16497	8.61932	0.25503	6.58006	-0.40342	11.14072	712.94	25.2
17.014	-139.343	9.46989	-0.90739	8.22586	-0.12198	7.11859	-0.37935	11.14439	713	25.2
17.007	-133.546	9.4739	-0.59951	7.77194	-0.44891	7.62624	-0.3678	11.1452	713.04999	25.2
17.001	-127.699	9.46508	-0.25176	7.2641	-0.75102	8.08937	-0.36341	11.13511	712.95001	25.2
17.006	-121.937	9.46594	0.12982	6.73906	-0.99995	8.50303	-0.35771	11.14483	712.96002	25.2
17.002	-116.134	9.45696	0.56441	6.16748	-1.20521	8.84813	-0.34527	11.12688	712.96997	25.2
17.001	-110.31	9.47381	1.044	5.59016	-1.36326	9.14581	-0.34165	11.14308	712.95001	25.2
16.988	-104.517	9.4802	1.55658	5.0042	-1.47386	9.36263	-0.33924	11.1387	712.97998	25.2
17.008	-98.662	9.47611	2.09652	4.39875	-1.56744	9.52346	-0.34024	11.13719	713.04999	25.2
16.996	-92.909	9.48298	2.66798	3.80532	-1.61195	9.60942	-0.34937	11.13648	713.03998	25.2
16.996	-87.091	9.49275	3.2603	3.22109	-1.61535	9.63665	-0.35051	11.14676	712.94	25.2
17.012	-81.253	9.4887	3.86622	2.64105	-1.58584	9.58785	-0.35786	11.14089	712.98999	25.2
16.988	-75.483	9.49908	4.47977	2.11846	-1.51018	9.46864	-0.37267	11.14236	713.03998	25.2
17.001	-69.69	9.49292	5.08718	1.60292	-1.40162	9.28626	-0.37753	11.14279	713.06	25.2
17.002	-63.866	9.49267	5.69036	1.10718	-1.24938	9.03255	-0.38298	11.14325	713	25.2
17.006	-58.063	9.49486	6.28253	0.6521	-1.05147	8.71337	-0.3963	11.14405	713.01001	25.2
17.001	-52.301	9.50637	6.84021	0.24294	-0.80181	8.33092	-0.41243	11.14622	713.04999	25.2
17.007	-46.454	9.50636	7.36622	-0.13212	-0.50624	7.88883	-0.42881	11.14104	712.89001	25.2
17.014	-40.657	9.50831	7.85054	-0.46545	-0.17889	7.40648	-0.45099	11.14148	712.95001	25.2
16.988	-34.839	9.5128	8.28137	-0.74317	0.19131	6.88329	-0.46396	11.14111	712.97998	25.2
16.995	-29.081	9.51453	8.65714	-0.95359	0.60909	6.32711	-0.48105	11.13506	712.95001	25.2
16.99	-23.241	9.52392	8.98439	-1.13646	1.07306	5.74158	-0.48694	11.14374	712.92999	25.2
17	-17.404	9.5247	9.23885	-1.29106	1.55786	5.14849	-0.48519	11.14243	712.96997	25.2
17.009	-11.617	9.51927	9.42448	-1.40833	2.08024	4.53723	-0.48331	11.13309	712.90997	25.2
16.99	-5.821	9.5379	9.55093	-1.47624	2.64686	3.92939	-0.47969	11.14565	713.03003	25.2
17	0	9.53514	9.60258	-1.50721	3.20531	3.33843	-0.49364	11.14003	712.98999	25.2
16.99	5.821	9.5367	9.57357	-1.49924	3.80408	2.74916	-0.50935	11.13174	713.03003	25.2
17.009	11.617	9.53281	9.4933	-1.4646	4.41254	2.17429	-0.52004	11.13461	713.03003	25.1
17	17.404	9.54307	9.33543	-1.37639	5.00728	1.65549	-0.52286	11.14117	712.87	25.2
16.99	23.241	9.5377	9.0959	-1.24591	5.61549	1.13998	-0.51748	11.13968	712.84003	25.1
16.995	29.081	9.53965	8.80703	-1.07814	6.20893	0.67052	-0.51608	11.14529	712.95001	25.1
16.988	34.839	9.54114	8.45133	-0.86343	6.75736	0.25487	-0.52709	11.14174	712.88	25.1
17.014	40.657	9.5405	8.04018	-0.61189	7.29961	-0.14018	-0.552	11.14839	712.96997	25.1
17.007	46.454	9.53636	7.565	-0.30517	7.79417	-0.48182	-0.5757	11.14125	712.97998	25.1
17.001	52.301	9.53423	7.05133	0.04065	8.24944	-0.78912	-0.60231	11.14104	712.90002	25.1
17.006	58.063	9.53247	6.50649	0.42089	8.63331	-1.04255	-0.62423	11.13586	712.89001	25.1
17.002	63.866	9.53665	5.92888	0.86153	8.97703	-1.25433	-0.63698	11.13942	712.89001	25.1
17.001	69.69	9.53023	5.32846	1.32483	9.25755	-1.43035	-0.64184	11.13604	712.85999	25.1
16.988	75.483	9.53074	4.72394	1.82726	9.47088	-1.5664	-0.6469	11.14248	712.83002	25.1
17.012	81.253	9.52672	4.11136	2.34703	9.62671	-1.66965	-0.64882	11.14368	712.89001	25.1
16.996	87.091	9.51849	3.49656	2.91985	9.69313	-1.7133	-0.65071	11.13884	712.78998	25.1
16.996	92.909	9.51428	2.90258	3.50138	9.70358	-1.7202	-0.66149	11.1409	712.87	25.1
17.008	98.662	9.50498	2.32844	4.09797	9.64775	-1.6923	-0.66831	11.14049	712.90997	25.1
16.988	104.517	9.49875	1.77618	4.70515	9.51588	-1.61724	-0.66855	11.14013	712.85999	25.1
17.001	110.31	9.49356	1.25571	5.30294	9.32202	-1.51061	-0.66452	11.14428	712.90997	25.1
17.002	116.134	9.4797	0.76855	5.89381	9.05024	-1.35506	-0.64599	11.13632	712.87	25.1
17.006	121.937	9.47617	0.31878	6.47058	8.72541	-1.15117	-0.63287	11.14099	713.01001	25.1
17.001	127.699	9.46521	-0.08516	7.00549	8.35161	-0.93107	-0.62825	11.14561	712.90997	25.1
17.007	133.546	9.45593	-0.45413	7.51759	7.9088	-0.64872	-0.63144	11.14198	712.90997	25.1
17.014	139.343	9.4504	-0.78077	7.99514	7.42041	-0.32515	-0.62805	11.14202	712.82001	25.1
16.988	145.161	9.44637	-1.0516	8.41172	6.88879	0.0468	-0.62368	11.13257	712.82001	25.1
16.995	150.919	9.44152	-1.28889	8.78322	6.34785	0.43006	-0.61406	11.145	712.91998	25.1
16.99	156.759	9.44157	-1.48166	9.10131	5.75556	0.89008	-0.58992	11.14136	712.95001	25.1
17	162.596	9.43557	-1.63453	9.35395	5.14819	1.36963	-0.57066	11.13323	712.87	25.1
17.009	168.383	9.43502	-1.745	9.54176	4.54764	1.88085	-0.54375	11.13512	712.94	25.1
16.99	174.179	9.44697	-1.80748	9.66376	3.9417	2.42896	-0.53232	11.13826	712.84998	25.1
18.709	174.675	9.06111	-2.41068	9.98747	3.65587	2.13905	-0.56015	11.14123	712.84998	25.1
18.703	169.441	9.06005	-2.34893	9.8816	4.25673	1.6036	-0.584	11.14478	712.97998	25.1
18.691	164.085	9.05817	-2.2504	9.70488	4.86365	1.09587	-0.61225	11.14245	712.95001	25.1
18.706	158.818	9.04899	-2.12248	9.46547	5.46179	0.61261	-0.644	11.13623	712.95001	25.1
18.695	153.537	9.05046	-1.95253	9.16997	6.05433	0.16595	-0.66616	11.13798	712.87	25.1
18.704	148.255	9.05621	-1.74473	8.83948	6.61355	-0.23141	-0.68948	11.13563	712.92999	25.1
18.698	142.952	9.06639	-1.51136	8.44966	7.16852	-0.60819	-0.70973	11.14237	712.90997	25.1
18.699	137.625	9.06847	-1.23248	8.00952	7.68796	-0.94612	-0.71899	11.14146	712.84998	25.1
18.705	132.343	9.07536	-0.90995	7.52563	8.15594	-1.24718	-0.72376	11.13749	712.84998	25.1
18.713	127.067	9.0865	-0.55133	7.00909	8.58405	-1.50844	-0.73632	11.13662	712.78998	25.1
18.7	121.794	9.09991	-0.15442	6.47168	8.96607	-1.7273	-0.7461	11.14768	712.78998	25.1
18.698	116.504	9.09894	0.2763	5.89599	9.2875	-1.91345	-0.76163	11.13388	712.91998	25.1
18.707	111.165	9.11001	0.74839	5.29807	9.57088	-2.06874	-0.78268	11.13972	712.85999	25.1
18.69	105.863	9.11763	1.25383	4.70281	9.77514	-2.18076	-0.78855	11.13751	712.90997	25.1
18.696	100.583	9.12361	1.78157	4.10952	9.92374	-2.2597	-0.78791	11.13428	712.85999	25.1
18.7	95.309	9.1433	2.34877	3.52049	10.01679	-2.29868	-0.78822	11.14532	712.89001	25.1
18.7	90	9.14403	2.92519	2.93444	10.03043	-2.3069	-0.78478	11.13913	712.88	25.1
18.7	84.691	9.1495	3.51898	2.36603	9.99104	-2.28389	-0.78442	11.13651	712.84998	25.1
18.696	79.417	9.15409	4.13257	1.81811	9.89163	-2.22373	-0.78125	11.13689	712.89001	25.1
18.69	74.137	9.15849	4.73593	1.30655	9.72672	-2.12176	-0.78025	11.13677	712.90997	25.1
18.707	68.835	9.15977	5.34274	0.82402	9.50523	-1.99676	-0.78003	11.13772	712.90997	25.1
18.698	63.496	9.16481	5.95318	0.36204	9.21558	-1.81577	-0.77063	11.13905	712.89001	25.1
18.7	58.206	9.17074	6.5314	-0.04707	8.87438	-1.60264	-0.75711	11.1442	712.88	25.1
18.713	52.933	9.1664	7.07526	-0.42292	8.47617	-1.35966	-0.7395	11.1323	712.82001	25.1
18.705	47.657	9.16553	7.58981	-0.76886	8.04395	-1.08487	-0.71092	11.14195	712.85999	25.1
18.699	42.375	9.16414	8.07137	-1.06488	7.55802	-0.76364	-0.69089	11.13889	712.85999	25.1
18.698	37.048	9.16726	8.50879	-1.32918	7.03085	-0.39968	-0.66885	11.14028	712.89001	25.1
18.704	31.745	9.16737	8.89604	-1.55615	6.47632	-0.00088	-0.65463	11.14336	712.90002	25.1
18.695	26.463	9.16259	9.21059	-1.72582	5.90857	0.4235	-0.64185	11.13405	712.92999	25.1
18.706	21.182	9.16294	9.48861	-1.88286	5.31838	0.89383	-0.63096	11.13891	712.85999	25.1
18.691	15.915	9.16995	9.70179	-1.98247	4.71685	1.40595	-0.61943	11.14301	712.85999	25
18.703	10.559	9.15666	9.84313	-2.0642	4.11058	1.92596	-0.61107	11.13437	712.79999	25
18.709	5.325	9.16245	9.93057	-2.10171	3.52098	2.48132	-0.5949	11.14511	712.88	25
18.7	0	9.15541	9.9376	-2.10099	2.92059	3.07613	-0.57335	11.13747	712.76001	25
18.709	-5.325	9.15406	9.89187	-2.07257	2.36429	3.66115	-0.55627	11.13966	712.82001	25
18.703	-10.559	9.14657	9.77913	-2.00874	1.82128	4.27182	-0.53697	11.13385	712.75	25
18.691	-15.915	9.14962	9.60127	-1.90362	1.30029	4.89327	-0.5223	11.13695	712.78998	25
18.706	-21.182	9.14949	9.37376	-1.76913	0.81696	5.4835	-0.50682	11.14169	712.83002	25
18.695	-26.463	9.14903	9.0778	-1.6075	0.35741	6.07799	-0.49497	11.13956	712.84003	25
18.704	-31.745	9.1398	8.72677	-1.43222	-0.07284	6.64516	-0.48049	11.1438	712.79999	25
18.698	-37.048	9.14256	8.328	-1.17263	-0.44503	7.17903	-0.46253	11.14452	712.77002	25
18.699	-42.375	9.12897	7.86814	-0.91016	-0.804	7.68254	-0.43015	11.13851	712.78998	25
18.705	-47.657	9.1281	7.3742	-0.617	-1.11875	8.15668	-0.41308	11.13885	712.73999	25
18.713	-52.933	9.12008	6.84183	-0.19904	-1.39331	8.58634	-0.40188	11.13932	712.71002	25
18.7	-58.206	9.11986	6.2857	0.20331	-1.60446	8.9493	-0.37301	11.13558	712.71002	25
18.698	-63.496	9.11675	5.69752	0.66869	-1.79614	9.26845	-0.36718	11.1336	712.77002	25
18.707	-68.835	9.11793	5.09117	1.12188	-1.95616	9.54473	-0.35147	11.14037	712.70001	25
18.69	-74.137	9.11841	4.48525	1.6145	-2.07177	9.74662	-0.34689	11.14186	712.66998	25
18.696	-79.417	9.11651	3.87406	2.14325	-2.15166	9.88334	-0.32901	11.14367	712.71002	25
18.7	-84.691	9.11059	3.26753	2.68391	-2.19298	9.95157	-0.32738	11.14025	712.73999	25
18.7	-90	9.1017	2.6743	3.24538	-2.20609	9.96037	-0.32067	11.13585	712.71997	25
18.7	-95.309	9.10173	2.10322	3.82071	-2.19068	9.91612	-0.32242	11.13951	712.78998	25
18.696	-100.583	9.10175	1.55017	4.40966	-2.13382	9.80574	-0.3196	11.14311	712.70001	25
18.69	-105.863	9.09494	1.03077	4.99624	-2.03555	9.62045	-0.32391	11.13754	712.72998	25
18.707	-111.165	9.0916	0.53968	5.58603	-1.92036	9.39054	-0.31816	11.14032	712.76001	25
18.698	-116.504	9.09237	0.07282	6.18058	-1.75277	9.08076	-0.31885	11.13589	712.69	25
18.7	-121.794	9.09234	-0.34401	6.7426	-1.56507	8.73458	-0.33279	11.14108	712.73999	25
18.713	-127.067	9.09117	-0.7266	7.27649	-1.34303	8.33506	-0.34102	11.14307	712.84003	25
18.705	-132.343	9.09099	-1.06459	7.78135	-1.06581	7.87378	-0.35007	11.14396	712.73999	25
18.699	-137.625	9.08989	-1.36264	8.24342	-0.74925	7.36945	-0.36893	11.13658	712.84003	25
18.698	-142.952	9.09475	-1.62251	8.6708	-0.39311	6.84038	-0.37651	11.14132	712.73999	25
18.704	-148.255	9.09336	-1.84913	9.04111	-0.01555	6.28778	-0.39396	11.14138	712.79999	25
18.695	-153.537	9.09636	-2.03113	9.3562	0.42813	5.70132	-0.41557	11.13913	712.85999	25
18.706	-158.818	9.0873	-2.18314	9.61736	0.89613	5.09723	-0.43953	11.13804	712.81	25
18.691	-164.085	9.08923	-2.29516	9.81543	1.38945	4.50702	-0.46312	11.14208	712.83002	25
18.703	-169.441	9.08022	-2.37601	9.95031	1.92772	3.8868	-0.48699	11.1384	712.84998	25
18.709	-174.675	9.07095	-2.42529	10.02336	2.48312	3.28876	-0.50687	11.13922	712.85999	25
18.7	180	9.06521	-2.43194	10.03356	3.05268	2.71073	-0.52683	11.13487	712.82001	25
20.4	180	8.65225	-3.01234	10.31566	2.75513	2.39792	-0.52522	11.14093	712.84998	25
20.401	-175.153	8.66167	-2.99784	10.30566	2.19996	2.96547	-0.49879	11.1428	712.85999	25
20.407	-170.264	8.66327	-2.96137	10.24249	1.64344	3.56112	-0.46734	11.14107	712.90997	25
20.41	-165.423	8.66886	-2.89554	10.12151	1.11495	4.16258	-0.44399	11.13876	712.94	25
20.392	-160.496	8.68122	-2.78534	9.93754	0.62725	4.76591	-0.4266	11.14016	712.85999	25
20.401	-155.705	8.67688	-2.66627	9.70571	0.15509	5.35831	-0.4071	11.1412	712.66998	25
20.405	-150.835	8.68266	-2.51	9.41322	-0.28123	5.94974	-0.38831	11.14341	712.75	25
20.397	-145.903	8.68693	-2.30121	9.06233	-0.67278	6.52554	-0.36649	11.1398	712.81	25
20.392	-141.062	8.68431	-2.07979	8.669	-1.03511	7.07142	-0.34865	11.13727	712.85999	25
20.396	-136.227	8.68251	-1.81857	8.22538	-1.36479	7.59329	-0.33617	11.14025	712.75	25
20.408	-131.372	8.67239	-1.52826	7.74358	-1.65892	8.07876	-0.32758	11.13687	712.73999	25
20.41	-126.511	8.68247	-1.18808	7.23132	-1.89845	8.52821	-0.31962	11.14107	712.81	25
20.4	-121.604	8.6853	-0.81296	6.68078	-2.11029	8.93509	-0.31102	11.14186	712.81	25
20.403	-116.741	8.67788	-0.41257	6.11502	-2.3047	9.28651	-0.31115	11.13995	712.84003	25
20.413	-111.9	8.67324	0.02072	5.53167	-2.4622	9.59116	-0.30388	11.13664	712.78003	25
20.398	-107.004	8.68277	0.50392	4.94413	-2.5791	9.84218	-0.30013	11.14014	712.88	25
20.394	-102.132	8.68233	1.00493	4.35731	-2.66888	10.02724	-0.29343	11.13604	712.64001	25
20.403	-97.332	8.68194	1.52206	3.77584	-2.73934	10.16162	-0.304	11.13611	712.75	25
20.392	-92.44	8.69329	2.08157	3.20265	-2.76815	10.24123	-0.30344	11.14299	712.75	25
20.392	-87.56	8.68892	2.65911	2.64422	-2.77396	10.25386	-0.31122	11.13315	712.69	25
20.403	-82.668	8.68916	3.25265	2.09898	-2.75127	10.21999	-0.30926	11.13678	712.66998	25
20.394	-77.868	8.70096	3.85535	1.57989	-2.70326	10.13524	-0.31917	11.14246	712.70001	25
20.398	-72.996	8.69729	4.45642	1.08059	-2.6178	9.98152	-0.32086	11.13717	712.67999	25
20.413	-68.1	8.69352	5.06195	0.5922	-2.51096	9.76991	-0.3295	11.13587	712.76001	25
20.403	-63.259	8.70343	5.66199	0.16271	-2.35821	9.49939	-0.34975	11.13894	712.84003	25
20.4	-58.396	8.70523	6.24809	-0.24511	-2.1753	9.17683	-0.3604	11.14148	712.78998	25
20.41	-53.489	8.70616	6.8122	-0.65019	-1.95857	8.80152	-0.37244	11.13648	712.79999	25
20.408	-48.628	8.70708	7.35196	-1.04669	-1.71731	8.38635	-0.39046	11.1393	712.78998	25
20.396	-43.773	8.71546	7.85524	-1.3823	-1.42051	7.92846	-0.40299	11.13959	712.72998	25
20.392	-38.938	8.7273	8.32512	-1.62953	-1.09395	7.43942	-0.41178	11.14864	712.73999	25
20.397	-34.097	8.72587	8.73883	-1.86276	-0.73319	6.90338	-0.44595	11.13245	712.83002	25
20.405	-29.165	8.72491	9.12364	-2.08753	-0.34781	6.35197	-0.46538	11.13896	712.79999	24.9
20.401	-24.295	8.73168	9.45051	-2.24832	0.08165	5.77402	-0.48953	11.14262	712.82001	25
20.392	-19.504	8.73831	9.71317	-2.37459	0.53798	5.18637	-0.51234	11.13645	712.81	25
20.41	-14.577	8.73654	9.9327	-2.50408	1.01876	4.58831	-0.5374	11.13817	712.79999	25
20.407	-9.736	8.74495	10.0914	-2.58723	1.53079	3.99107	-0.55917	11.14241	712.85999	25
20.401	-4.847	8.75223	10.19679	-2.64235	2.07566	3.38757	-0.58885	11.14418	712.81	25
20.4	0	8.7492	10.23293	-2.6697	2.62211	2.80821	-0.61288	11.13874	712.79999	25
20.401	4.847	8.75082	10.22317	-2.66394	3.20276	2.22199	-0.64022	11.13981	712.77002	24.9
20.407	9.736	8.75248	10.15309	-2.63735	3.80153	1.65931	-0.6644	11.13956	712.71997	25
20.41	14.577	8.75713	10.03222	-2.58023	4.38604	1.14474	-0.68763	11.14703	712.78003	25
20.392	19.504	8.76109	9.83302	-2.47723	4.99587	0.64083	-0.71173	11.14248	712.96002	24.9
20.401	24.295	8.75672	9.58812	-2.3578	5.57898	0.16986	-0.72905	11.14266	712.87	24.9
20.405	29.165	8.76122	9.28881	-2.19779	6.15738	-0.25638	-0.75114	11.14315	712.91998	24.9
20.397	34.097	8.76247	8.92389	-2.00023	6.73286	-0.6665	-0.77291	11.1405	712.90997	24.9
20.392	38.938	8.76207	8.51916	-1.77212	7.26843	-1.03308	-0.7965	11.14165	712.83002	24.9
20.396	43.773	8.76282	8.07417	-1.51625	7.77384	-1.36532	-0.81474	11.13947	712.82001	24.9
20.408	48.628	8.75769	7.58683	-1.22999	8.24506	-1.66352	-0.83123	11.13896	712.78998	24.9
20.41	53.489	8.75842	7.05763	-0.89676	8.68783	-1.93533	-0.85852	11.13964	712.84003	24.9
20.4	58.396	8.75886	6.50079	-0.52876	9.08352	-2.17489	-0.88217	11.1422	712.78003	24.9
20.403	63.259	8.75734	5.9273	-0.12919	9.42441	-2.37401	-0.89037	11.13971	712.88	24.9
20.413	68.1	8.74991	5.33121	0.3087	9.70833	-2.54208	-0.89049	11.1373	712.87	24.9
20.398	72.996	8.7608	4.7312	0.78465	9.94364	-2.66406	-0.88791	11.14213	712.87	25
20.394	77.868	8.75535	4.12759	1.28722	10.11281	-2.75855	-0.89295	11.13809	712.83002	24.9
20.403	82.668	8.74964	3.52574	1.80583	10.2432	-2.83406	-0.89397	11.14218	712.89001	24.9
20.392	87.56	8.75034	2.92636	2.36075	10.30544	-2.86346	-0.88345	11.14631	712.78998	24.9
20.392	92.44	8.74102	2.34412	2.92189	10.31001	-2.87537	-0.8838	11.14152	712.87	24.9
20.403	97.332	8.72143	1.77565	3.50379	10.25783	-2.85778	-0.88405	11.13517	712.75	24.9
20.394	102.132	8.72411	1.24835	4.08841	10.16021	-2.79985	-0.8819	11.14237	712.83002	24.9
20.398	107.004	8.71192	0.73162	4.6805	9.99694	-2.72198	-0.87553	11.14032	712.71997	24.9
20.413	111.9	8.69243	0.23798	5.27134	9.7785	-2.6216	-0.86883	11.13746	712.71997	24.9
20.403	116.741	8.68242	-0.2178	5.85287	9.50712	-2.47992	-0.8549	11.14083	712.72998	24.9
20.4	121.604	8.67816	-0.6276	6.42269	9.17856	-2.29309	-0.84306	11.13931	712.85999	24.9
20.41	126.511	8.66723	-1.01814	6.97597	8.79802	-2.0866	-0.82889	11.13898	712.84998	24.9
20.408	131.372	8.66061	-1.37067	7.50518	8.37114	-1.83796	-0.81	11.14173	712.82001	24.9
20.396	136.227	8.65917	-1.67542	7.99397	7.90721	-1.55283	-0.79213	11.14229	712.76001	24.9
20.392	141.062	8.64974	-1.94982	8.43703	7.41207	-1.24818	-0.77111	11.13922	712.72998	24.9
20.397	145.903	8.64171	-2.19528	8.84633	6.87667	-0.90234	-0.75091	11.13638	712.84003	24.9
20.405	150.835	8.64023	-2.41314	9.21635	6.30435	-0.52187	-0.72	11.14007	712.77002	24.9
20.401	155.705	8.63725	-2.58834	9.53512	5.73216	-0.11639	-0.68631	11.14266	712.79999	24.9
20.392	160.496	8.63776	-2.73115	9.79328	5.14838	0.32307	-0.65684	11.14349	712.78998	24.9
20.41	165.423	8.63728	-2.84951	10.01088	4.53529	0.80766	-0.62731	11.13822	712.76001	24.9
20.407	170.264	8.63674	-2.93449	10.15798	3.94579	1.29733	-0.58995	11.13381	712.79999	24.9
20.401	175.153	8.64586	-2.9827	10.2672	3.34952	1.8387	-0.55347	11.13991	712.78998	24.9
0.141	45	11.13078	4.57659	4.78234	4.77336	4.58158	0.21862	11.14382	712.81	24.9
4.001	128.691	11.09608	3.65403	5.55278	5.80224	3.45597	0.13811	11.1463	712.69	24.9
4.002	76.995	11.09497	4.81706	4.39991	6.06212	3.2602	0.19098	11.14075	712.78998	24.9
4.002	25.892	10.80106	5.63267	3.43526	5.10625	3.88517	0.20448	10.78007	712.85999	24.9
4.002	-25.892	10.8730175	5.00403	4.1149925	4.9912225	4.037585	0.1813175	10.871755	712.75	24.9
4.002	-76.995	10.944975	4.37539	4.794725	4.876195	4.19	0.158155	10.96344	712.64001	24.8
4.001	-128.691	11.0169325	3.74675	5.4744575	4.7611675	4.342415	0.1349925	11.055125	712.76001	24.7
4	180	11.08889	3.11811	6.15419	4.64614	4.49483	0.11183	11.14681	712.67999	24.9
8	180	10.83778	1.58303	7.43519	4.41221	4.2052	-0.08517	11.1397	712.78998	24.9
7.991	-152.37	10.84348	1.8429	7.10913	3.1596	5.54158	-0.09513	11.13795	712.87	24.9
7.997	-124.55	10.85549	2.61563	6.17142	2.2546	6.65957	-0.10658	11.13977	712.71997	24.9
8.006	-96.837	10.85449	3.79841	4.86942	1.83164	7.23306	-0.09527	11.13868	712.78003	24.9
7.988	-69.228	10.8781	5.16458	3.5723	1.96594	7.09313	-0.07075	11.14777	712.75	24.9
7.997	-41.563	10.87218	6.3705	2.54768	2.5942	6.29468	-0.03166	11.13935	712.76001	24.9
8.008	-13.821	10.87397	7.11288	1.96599	3.70384	5.02925	0.03145	11.1365	712.84998	24.9
8.008	13.821	10.87681	7.15929	1.92198	5.04337	3.68398	0.04828	11.14508	712.76001	24.9
7.997	41.563	10.87285	6.47909	2.43155	6.31499	2.54542	0.04027	11.14142	712.71002	24.9
7.988	69.228	10.86635	5.28836	3.4249	7.17798	1.8318	0.00466	11.14137	712.67999	24.9
8.006	96.837	10.85296	3.91023	4.72298	7.386	1.65653	-0.03302	11.14071	712.69	24.9
7.997	124.55	10.84536	2.69493	6.04161	6.86631	2.05174	-0.04881	11.14339	712.77002	24.9
7.991	152.37	10.83659	1.87803	7.03712	5.77828	2.94494	-0.0761	11.14371	712.81	24.9
12.009	161.059	10.34723	0.20222	8.27174	5.43348	2.44054	-0.32126	11.13925	712.76001	24.9
12.013	142.081	10.34833	0.74913	7.49402	6.7597	1.35669	-0.32233	11.1373	712.71997	24.9
12.006	123.113	10.36903	1.65766	6.34801	7.7971	0.60437	-0.30268	11.14336	712.71002	24.9
12.007	104.2	10.38049	2.83931	4.99196	8.41567	0.1774	-0.31051	11.14112	712.71997	24.9
11.989	85.301	10.39184	4.2168	3.60674	8.51445	0.12702	-0.27151	11.1363	712.76001	24.9
12.013	66.294	10.4031	5.64658	2.33689	8.11668	0.41399	-0.26103	11.14014	712.65997	24.9
12.012	47.388	10.40794	6.91439	1.33018	7.2535	1.05163	-0.21858	11.14347	712.78998	24.9
11.99	28.44	10.4179	7.86482	0.66443	6.03099	2.04765	-0.1645	11.14274	712.79999	24.9
11.991	9.464	10.42054	8.35358	0.35324	4.64089	3.29571	-0.18862	11.14092	712.75	24.9
11.991	-9.464	10.42132	8.3145	0.39259	3.26931	4.68285	-0.20253	11.14384	712.79999	24.9
11.99	-28.44	10.41412	7.75859	0.77925	2.04477	6.07415	-0.26418	11.1391	712.66998	24.9
12.012	-47.388	10.40589	6.76961	1.48614	1.09345	7.27176	-0.29204	11.14072	712.70001	24.9
12.013	-66.294	10.40368	5.47287	2.55837	0.49531	8.0916	-0.31305	11.14366	712.63	24.9
11.989	-85.301	10.40091	4.04648	3.85643	0.26545	8.42753	-0.31849	11.14271	712.70001	24.9
12.007	-104.2	10.3812	2.68161	5.24263	0.3507	8.25601	-0.31309	11.1377	712.77002	24.9
12.006	-123.113	10.3706	1.52947	6.56593	0.78544	7.59089	-0.33054	11.13662	712.75	24.9
12.013	-142.081	10.37537	0.67751	7.6689	1.5934	6.49713	-0.31876	11.14403	712.78998	24.9
12.009	-161.059	10.36756	0.16927	8.35423	2.69269	5.15761	-0.33076	11.14138	712.70001	24.9
16	180	9.65582	-1.47597	9.50951	3.48583	3.17133	-0.48726	11.13255	712.69	24.9
15.99	-165.604	9.67644	-1.3755	9.36447	2.15619	4.57683	-0.47021	11.14328	712.76001	24.9
16.002	-151.165	9.68152	-1.03648	8.82095	0.98771	5.97828	-0.4212	11.14334	712.63	24.9
16.002	-136.836	9.67385	-0.44466	7.92368	0.06282	7.25248	-0.39387	11.12996	712.64001	24.9
15.995	-122.439	9.68049	0.39435	6.76773	-0.62527	8.31678	-0.37136	11.13991	712.67999	24.9
15.993	-107.966	9.68513	1.49139	5.41797	-1.05776	9.05104	-0.35051	11.14042	712.70001	24.9
16.005	-93.629	9.6943	2.77835	4.03048	-1.24426	9.39509	-0.35381	11.14031	712.59003	24.9
15.992	-79.234	9.70016	4.18473	2.69087	-1.19969	9.33832	-0.37455	11.13953	712.78998	24.9
16.009	-64.774	9.70394	5.61521	1.46859	-0.92037	8.8921	-0.3907	11.14073	712.78998	24.9
15.997	-50.364	9.71964	6.95781	0.4241	-0.36566	8.05562	-0.41357	11.1452	712.66998	24.9
15.997	-36.045	9.71904	8.06259	-0.34714	0.42224	6.92962	-0.45121	11.13854	712.75	24.9
16	-21.597	9.72575	8.88123	-0.83057	1.46674	5.58843	-0.45957	11.1386	712.70001	24.9
16.003	-7.169	9.73122	9.32001	-1.1053	2.70888	4.1673	-0.43584	11.14068	712.70001	24.9
16.003	7.169	9.73975	9.36412	-1.14129	4.07243	2.7838	-0.45707	11.14323	712.85999	24.9
16	21.597	9.73823	8.98899	-0.93958	5.48858	1.51853	-0.44592	11.14462	712.78003	24.9
15.997	36.045	9.73095	8.21574	-0.47758	6.83072	0.44979	-0.45276	11.13643	712.75	24.9
15.997	50.364	9.72982	7.14744	0.2261	7.99174	-0.38099	-0.51934	11.14324	712.88	24.9
16.009	64.774	9.7321	5.83814	1.19021	8.86575	-0.96013	-0.56559	11.14376	712.75	24.9
15.992	79.234	9.72106	4.41136	2.37343	9.37128	-1.28841	-0.57359	11.13794	712.73999	24.9
16.005	93.629	9.70845	2.99614	3.70923	9.49927	-1.37219	-0.58973	11.14032	712.71997	24.9
15.993	107.966	9.69166	1.69362	5.11309	9.21354	-1.21394	-0.5969	11.1378	712.78998	24.9
15.995	122.439	9.6725	0.56279	6.48655	8.55255	-0.81951	-0.57003	11.14265	712.75	24.9
16.002	136.836	9.65838	-0.32619	7.69306	7.54879	-0.15903	-0.56467	11.14443	712.78998	24.9
16.002	151.165	9.64148	-0.9643	8.64578	6.31419	0.71979	-0.56283	11.13925	712.71997	24.9
15.99	165.604	9.64913	-1.34161	9.26861	4.91625	1.85682	-0.5127	11.13815	712.71002	24.9
20.003	168.362	8.74092	-2.76685	10.0505	4.23275	1.2	-0.60707	11.14042	712.71002	24.9
20.008	156.764	8.73341	-2.49297	9.54009	5.62915	0.08015	-0.68081	11.13912	712.83002	24.9
20	145.147	8.74853	-2.0294	8.75129	6.96095	-0.84427	-0.7404	11.1428	712.66998	24.9
19.995	133.545	8.7618	-1.39036	7.71017	8.14399	-1.58743	-0.78612	11.14367	712.73999	24.9
20.009	121.926	8.7732	-0.54171	6.46189	9.11305	-2.15904	-0.82538	11.14033	712.66998	24.9
20.005	110.327	8.80055	0.50169	5.1109	9.8047	-2.52547	-0.85368	11.14248	712.65002	24.9
19.989	98.733	8.82796	1.7084	3.73332	10.17398	-2.70171	-0.86508	11.14061	712.66998	24.9
19.999	87.075	8.83866	3.04617	2.38276	10.2309	-2.73163	-0.86926	11.13568	712.72998	24.9
19.992	75.457	8.85004	4.46557	1.12583	9.97665	-2.58377	-0.8669	11.13936	712.78998	24.9
20.009	63.844	8.84649	5.86741	0.03145	9.41209	-2.27007	-0.86632	11.13715	712.78998	24.9
19.989	52.269	8.86115	7.18382	-0.84919	8.54914	-1.73873	-0.82852	11.13951	712.84998	24.9
19.999	40.602	8.85979	8.34034	-1.56802	7.44206	-1.04126	-0.78189	11.14663	712.73999	24.9
20.004	29.051	8.86009	9.24389	-2.06256	6.16028	-0.13863	-0.72936	11.14238	712.78003	24.9
20.005	17.433	8.85666	9.85812	-2.38737	4.77857	0.93772	-0.68389	11.1441	712.75	24.9
20.006	5.78	8.85248	10.14816	-2.51717	3.38203	2.19073	-0.63573	11.1405	712.78998	24.9
20.006	-5.78	8.84802	10.11635	-2.49715	2.06171	3.55369	-0.5795	11.14345	712.70001	24.9
20.005	-17.433	8.8388	9.75653	-2.29063	0.8412	4.96556	-0.52548	11.14228	712.72998	24.9
20.004	-29.051	8.82957	9.08017	-1.94117	-0.21696	6.34348	-0.4763	11.1402	712.69	24.9
19.999	-40.602	8.82361	8.13926	-1.39723	-1.08268	7.58883	-0.42168	11.14222	712.72998	24.9
19.989	-52.269	8.81961	6.94874	-0.59494	-1.75871	8.65857	-0.378	11.14249	712.70001	24.8
20.009	-63.844	8.80725	5.61513	0.37865	-2.24023	9.4829	-0.34999	11.14132	712.67999	24.9
19.992	-75.457	8.80427	4.19617	1.44229	-2.52499	10.0023	-0.32774	11.14093	712.71002	24.9
19.999	-87.075	8.79536	2.7866	2.6916	-2.63947	10.19174	-0.30415	11.14238	712.78003	24.9
19.989	-98.733	8.79396	1.46454	4.02155	-2.58068	10.06722	-0.3102	11.14371	712.66998	24.9
20.005	-110.327	8.7795	0.27741	5.38109	-2.37086	9.62179	-0.30223	11.13925	712.70001	24.9
20.009	-121.926	8.78365	-0.72691	6.72433	-1.97679	8.86977	-0.31211	11.14227	712.71002	24.9
19.995	-133.545	8.78243	-1.53415	7.95177	-1.39804	7.84388	-0.34454	11.13739	712.76001	24.9
20	-145.147	8.7923	-2.14151	8.9716	-0.61329	6.61516	-0.37668	11.14209	712.79999	24.8
20.008	-156.764	8.77468	-2.56602	9.70619	0.36342	5.25256	-0.41532	11.13698	712.73999	24.8
20.003	-168.362	8.76871	-2.79846	10.13772	1.52775	3.84596	-0.46747	11.13887	712.78998	24.8
20	180	8.76335	-2.86821	10.25419	2.84104	2.47633	-0.52566	11.14919	712.72998	24.9
